TITLE	
DATA TYPE	ULTRAVIOLET SPECTRUM
ORIGIN	JASCO
OWNER	
DATE	24/09/13
TIME	10:28:53
SPECTROMETER/DATA SYSTEM	
RESOLUTION	
DELTAX	-1
XUNITS	NANOMETERS
YUNITS	TRANSMITTANCE
FIRSTX	 1500.0000
LASTX	  300.0000
NPOINTS	    1201
FIRSTY	    21.31707
MAXY	    28.99502
MINY	    -0.61761
XYDATA
1500.0000	21.3171
1499.0000	20.8563
1498.0000	21.5949
1497.0000	21.2059
1496.0000	20.5917
1495.0000	19.9472
1494.0000	19.4454
1493.0000	20.6266
1492.0000	20.751
1491.0000	19.9807
1490.0000	20.3193
1489.0000	20.0673
1488.0000	20.0694
1487.0000	20.0634
1486.0000	19.1572
1485.0000	19.3462
1484.0000	19.9356
1483.0000	19.7549
1482.0000	20.6456
1481.0000	20.555
1480.0000	21.4987
1479.0000	21.8734
1478.0000	21.6676
1477.0000	20.9877
1476.0000	20.595
1475.0000	21.1629
1474.0000	20.1246
1473.0000	20.1472
1472.0000	21.603
1471.0000	21.4167
1470.0000	21.6159
1469.0000	21.8348
1468.0000	21.3571
1467.0000	21.3431
1466.0000	20.3064
1465.0000	19.8932
1464.0000	19.9943
1463.0000	18.9483
1462.0000	19.7099
1461.0000	20.3897
1460.0000	20.6594
1459.0000	21.2199
1458.0000	20.8095
1457.0000	22.0051
1456.0000	22.7864
1455.0000	22.3794
1454.0000	22.9554
1453.0000	23.8395
1452.0000	23.6177
1451.0000	23.4844
1450.0000	23.7775
1449.0000	23.7075
1448.0000	23.0642
1447.0000	22.2848
1446.0000	21.8734
1445.0000	21.8511
1444.0000	21.5033
1443.0000	21.111
1442.0000	21.2459
1441.0000	21.6874
1440.0000	22.1803
1439.0000	22.4991
1438.0000	23.46
1437.0000	23.065
1436.0000	23.1982
1435.0000	22.5769
1434.0000	22.7255
1433.0000	23.3908
1432.0000	22.6082
1431.0000	23.1531
1430.0000	23.5089
1429.0000	23.4029
1428.0000	23.3752
1427.0000	23.5299
1426.0000	23.4326
1425.0000	23.1586
1424.0000	23.5436
1423.0000	24.2942
1422.0000	24.1464
1421.0000	23.5086
1420.0000	23.8019
1419.0000	24.4186
1418.0000	23.9104
1417.0000	24.2943
1416.0000	24.2356
1415.0000	24.0163
1414.0000	24.3013
1413.0000	24.2871
1412.0000	24.506
1411.0000	24.4703
1410.0000	23.9773
1409.0000	24.0453
1408.0000	24.7175
1407.0000	24.943
1406.0000	24.7343
1405.0000	24.3979
1404.0000	24.6846
1403.0000	24.5394
1402.0000	24.573
1401.0000	24.5025
1400.0000	24.8845
1399.0000	24.8999
1398.0000	25.4892
1397.0000	25.3927
1396.0000	25.9556
1395.0000	25.84
1394.0000	25.7619
1393.0000	25.505
1392.0000	25.6325
1391.0000	25.8363
1390.0000	25.9083
1389.0000	25.9301
1388.0000	25.5577
1387.0000	25.4599
1386.0000	25.8935
1385.0000	25.2557
1384.0000	25.2984
1383.0000	24.9984
1382.0000	24.9326
1381.0000	24.8724
1380.0000	24.7378
1379.0000	24.9681
1378.0000	24.6496
1377.0000	24.6725
1376.0000	25.2734
1375.0000	25.9276
1374.0000	25.8091
1373.0000	25.6231
1372.0000	26.2847
1371.0000	26.7833
1370.0000	26.7461
1369.0000	26.779
1368.0000	26.7727
1367.0000	26.6077
1366.0000	26.6437
1365.0000	26.6758
1364.0000	26.8503
1363.0000	26.8005
1362.0000	26.6805
1361.0000	26.8928
1360.0000	26.5686
1359.0000	26.4723
1358.0000	26.0688
1357.0000	26.5103
1356.0000	26.2648
1355.0000	26.1732
1354.0000	26.2215
1353.0000	26.2443
1352.0000	26.3377
1351.0000	26.0357
1350.0000	26.5197
1349.0000	26.1819
1348.0000	26.4873
1347.0000	27.1768
1346.0000	27.5054
1345.0000	27.4148
1344.0000	27.842
1343.0000	27.8177
1342.0000	27.8638
1341.0000	27.5341
1340.0000	27.9611
1339.0000	27.6961
1338.0000	27.756
1337.0000	27.5518
1336.0000	27.8292
1335.0000	27.6261
1334.0000	27.5379
1333.0000	27.2095
1332.0000	27.4108
1331.0000	27.5266
1330.0000	27.3727
1329.0000	27.2693
1328.0000	27.5897
1327.0000	27.629
1326.0000	27.5556
1325.0000	27.7368
1324.0000	28.085
1323.0000	28.0517
1322.0000	28.5567
1321.0000	28.4987
1320.0000	28.6099
1319.0000	28.6203
1318.0000	28.5474
1317.0000	28.6095
1316.0000	28.2836
1315.0000	27.9548
1314.0000	28.2611
1313.0000	27.8166
1312.0000	28.0025
1311.0000	27.8658
1310.0000	27.9352
1309.0000	28.0622
1308.0000	28.3416
1307.0000	28.3346
1306.0000	28.3517
1305.0000	28.4285
1304.0000	28.4228
1303.0000	28.7114
1302.0000	28.6302
1301.0000	28.6171
1300.0000	28.3819
1299.0000	28.3277
1298.0000	28.2863
1297.0000	28.3493
1296.0000	28.3641
1295.0000	28.1181
1294.0000	28.2101
1293.0000	28.1508
1292.0000	28.0371
1291.0000	27.8487
1290.0000	27.7907
1289.0000	28.1201
1288.0000	28.0162
1287.0000	28.201
1286.0000	28.3239
1285.0000	28.6997
1284.0000	28.626
1283.0000	28.7339
1282.0000	28.5582
1281.0000	28.3419
1280.0000	28.4834
1279.0000	28.3427
1278.0000	28.4287
1277.0000	28.5227
1276.0000	28.4182
1275.0000	28.4249
1274.0000	28.3677
1273.0000	28.6028
1272.0000	28.7742
1271.0000	28.5374
1270.0000	28.6469
1269.0000	28.995
1268.0000	28.7455
1267.0000	28.662
1266.0000	28.4653
1265.0000	28.284
1264.0000	28.3596
1263.0000	28.2144
1262.0000	28.2431
1261.0000	28.0905
1260.0000	28.1163
1259.0000	28.0747
1258.0000	28.1007
1257.0000	28.0084
1256.0000	27.9517
1255.0000	27.9092
1254.0000	27.684
1253.0000	27.594
1252.0000	27.5556
1251.0000	27.7898
1250.0000	27.8407
1249.0000	27.8774
1248.0000	28.0649
1247.0000	28.2167
1246.0000	28.2001
1245.0000	28.1583
1244.0000	28.1968
1243.0000	27.9731
1242.0000	27.9103
1241.0000	27.7543
1240.0000	27.7754
1239.0000	27.9479
1238.0000	27.9078
1237.0000	27.9128
1236.0000	27.8658
1235.0000	27.9849
1234.0000	27.91
1233.0000	27.4671
1232.0000	27.323
1231.0000	27.3255
1230.0000	27.6159
1229.0000	27.5553
1228.0000	27.4994
1227.0000	27.725
1226.0000	27.6454
1225.0000	27.576
1224.0000	27.3222
1223.0000	27.3187
1222.0000	27.1678
1221.0000	27.4417
1220.0000	27.3481
1219.0000	27.2408
1218.0000	27.1413
1217.0000	27.0664
1216.0000	26.9886
1215.0000	27.0463
1214.0000	26.835
1213.0000	26.7896
1212.0000	26.8998
1211.0000	27.2286
1210.0000	27.3728
1209.0000	27.3531
1208.0000	27.151
1207.0000	27.0972
1206.0000	27.2334
1205.0000	27.0005
1204.0000	26.9182
1203.0000	26.7988
1202.0000	26.7961
1201.0000	26.8968
1200.0000	26.6045
1199.0000	26.8192
1198.0000	26.8103
1197.0000	26.9121
1196.0000	27.0232
1195.0000	27.1309
1194.0000	27.2004
1193.0000	26.8896
1192.0000	27.0088
1191.0000	27.0059
1190.0000	26.7688
1189.0000	26.4243
1188.0000	26.3568
1187.0000	26.1455
1186.0000	26.0877
1185.0000	25.852
1184.0000	25.8719
1183.0000	25.8937
1182.0000	26.1914
1181.0000	26.3142
1180.0000	26.2961
1179.0000	26.3376
1178.0000	26.2779
1177.0000	26.0092
1176.0000	25.9774
1175.0000	25.8941
1174.0000	25.8851
1173.0000	25.8573
1172.0000	25.715
1171.0000	25.7882
1170.0000	25.5965
1169.0000	25.4406
1168.0000	25.646
1167.0000	25.6304
1166.0000	25.5313
1165.0000	25.6435
1164.0000	25.7933
1163.0000	25.883
1162.0000	25.6422
1161.0000	25.5508
1160.0000	25.4759
1159.0000	25.3545
1158.0000	25.4152
1157.0000	25.2225
1156.0000	25.2213
1155.0000	25.0782
1154.0000	25.0413
1153.0000	24.993
1152.0000	24.8969
1151.0000	24.9242
1150.0000	24.9895
1149.0000	24.8351
1148.0000	25.0023
1147.0000	25.0158
1146.0000	24.8703
1145.0000	24.9056
1144.0000	24.825
1143.0000	24.5272
1142.0000	24.6197
1141.0000	24.5117
1140.0000	24.4385
1139.0000	24.4605
1138.0000	24.3449
1137.0000	24.4667
1136.0000	24.5507
1135.0000	24.5352
1134.0000	24.4574
1133.0000	24.5168
1132.0000	24.4169
1131.0000	24.4039
1130.0000	24.3753
1129.0000	24.0001
1128.0000	24.0017
1127.0000	23.9594
1126.0000	23.8326
1125.0000	23.7952
1124.0000	23.5983
1123.0000	23.8123
1122.0000	24.0209
1121.0000	23.8992
1120.0000	23.9608
1119.0000	23.7557
1118.0000	23.9417
1117.0000	23.6063
1116.0000	23.4095
1115.0000	23.3929
1114.0000	23.4955
1113.0000	23.4024
1112.0000	23.3371
1111.0000	23.3866
1110.0000	23.4525
1109.0000	23.2244
1108.0000	23.1616
1107.0000	23.2315
1106.0000	23.123
1105.0000	23.0511
1104.0000	22.8927
1103.0000	22.9441
1102.0000	23.0686
1101.0000	23.021
1100.0000	22.795
1099.0000	22.713
1098.0000	22.8053
1097.0000	22.8178
1096.0000	22.7727
1095.0000	22.5457
1094.0000	22.5736
1093.0000	22.461
1092.0000	22.4018
1091.0000	22.2766
1090.0000	22.0419
1089.0000	21.7894
1088.0000	21.5763
1087.0000	21.5314
1086.0000	21.4874
1085.0000	21.5794
1084.0000	21.4825
1083.0000	21.4752
1082.0000	21.5904
1081.0000	21.5671
1080.0000	21.6888
1079.0000	21.5884
1078.0000	21.5601
1077.0000	21.4886
1076.0000	21.2246
1075.0000	21.019
1074.0000	20.7466
1073.0000	20.6211
1072.0000	20.2547
1071.0000	19.9209
1070.0000	19.9866
1069.0000	19.8198
1068.0000	19.6558
1067.0000	19.3988
1066.0000	19.3471
1065.0000	19.3189
1064.0000	19.0369
1063.0000	18.8971
1062.0000	18.5691
1061.0000	18.3797
1060.0000	17.9844
1059.0000	17.8379
1058.0000	17.5336
1057.0000	17.2258
1056.0000	16.9929
1055.0000	16.7716
1054.0000	16.3238
1053.0000	16.2253
1052.0000	15.8721
1051.0000	15.6294
1050.0000	15.4151
1049.0000	15.0781
1048.0000	14.893
1047.0000	14.745
1046.0000	14.5701
1045.0000	14.0819
1044.0000	13.6053
1043.0000	13.4149
1042.0000	13.2264
1041.0000	12.9234
1040.0000	12.5197
1039.0000	12.2958
1038.0000	12.1918
1037.0000	11.8842
1036.0000	11.6671
1035.0000	11.4526
1034.0000	11.2679
1033.0000	11.1229
1032.0000	10.6165
1031.0000	10.6348
1030.0000	10.4406
1029.0000	10.1554
1028.0000	9.91079
1027.0000	9.59451
1026.0000	9.45245
1025.0000	9.27936
1024.0000	9.09294
1023.0000	8.62572
1022.0000	8.51281
1021.0000	8.22735
1020.0000	7.89534
1019.0000	7.93607
1018.0000	7.71344
1017.0000	7.50551
1016.0000	7.17737
1015.0000	6.85206
1014.0000	6.66485
1013.0000	6.22739
1012.0000	5.97989
1011.0000	5.91988
1010.0000	5.74501
1009.0000	5.85746
1008.0000	5.82712
1007.0000	5.68124
1006.0000	5.66426
1005.0000	5.63599
1004.0000	5.34296
1003.0000	5.02211
1002.0000	4.83927
1001.0000	4.80427
1000.0000	4.45172
999.0000	4.32196
998.0000	4.24221
997.0000	4.3426
996.0000	4.29238
995.0000	4.26904
994.0000	4.00766
993.0000	3.90317
992.0000	3.89924
991.0000	3.70074
990.0000	3.46947
989.0000	3.34618
988.0000	3.23597
987.0000	3.13324
986.0000	2.95276
985.0000	2.83477
984.0000	2.57184
983.0000	2.53436
982.0000	2.78637
981.0000	2.81285
980.0000	2.72266
979.0000	2.44601
978.0000	2.33846
977.0000	2.45965
976.0000	2.21824
975.0000	2.21257
974.0000	2.09759
973.0000	2.21851
972.0000	2.31922
971.0000	2.12616
970.0000	1.90057
969.0000	1.79453
968.0000	1.75421
967.0000	1.64137
966.0000	1.45558
965.0000	1.44143
964.0000	1.37017
963.0000	1.16856
962.0000	0.966575
961.0000	0.8716
960.0000	0.934958
959.0000	1.12884
958.0000	0.97644
957.0000	1.09908
956.0000	1.06041
955.0000	1.02005
954.0000	0.823411
953.0000	0.845859
952.0000	0.763527
951.0000	0.849822
950.0000	1.18055
949.0000	1.26306
948.0000	1.69632
947.0000	1.44207
946.0000	1.42522
945.0000	1.35751
944.0000	1.15765
943.0000	1.30173
942.0000	1.31321
941.0000	1.0591
940.0000	1.14991
939.0000	1.32563
938.0000	1.0729
937.0000	0.847573
936.0000	0.634339
935.0000	0.848615
934.0000	1.17157
933.0000	0.709512
932.0000	0.579067
931.0000	0.679745
930.0000	0.615157
929.0000	0.583955
928.0000	0.325033
927.0000	0.580474
926.0000	0.607401
925.0000	0.757165
924.0000	0.858024
923.0000	1.10363
922.0000	1.17743
921.0000	1.06462
920.0000	1.49686
919.0000	1.41357
918.0000	1.43785
917.0000	1.18931
916.0000	1.21775
915.0000	1.25677
914.0000	0.734534
913.0000	0.658878
912.0000	0.611164
911.0000	0.876989
910.0000	0.771844
909.0000	0.549078
908.0000	0.472843
907.0000	0.462688
906.0000	0.908353
905.0000	1.162
904.0000	0.830963
903.0000	1.367
902.0000	1.44146
901.0000	1.48464
900.0000	1.46425
899.0000	1.01216
898.0000	1.26085
897.0000	1.24925
896.0000	0.939545
895.0000	0.993281
894.0000	1.15936
893.0000	1.18167
892.0000	0.791115
891.0000	0.733112
890.0000	0.921471
889.0000	0.862329
888.0000	0.560375
887.0000	0.362147
886.0000	0.377462
885.0000	0.790943
884.0000	0.572995
883.0000	0.468141
882.0000	0.211064
881.0000	0.727083
880.0000	0.731955
879.0000	0.502398
878.0000	0.439998
877.0000	0.366687
876.0000	0.443463
875.0000	0.452111
874.0000	0.870559
873.0000	0.85245
872.0000	0.924408
871.0000	0.489635
870.0000	0.332768
869.0000	0.402562
868.0000	-0.107544
867.0000	-0.138726
866.0000	0.396531
865.0000	0.199487
864.0000	0.134886
863.0000	0.227318
862.0000	0.485662
861.0000	0.887822
860.0000	1.02293
859.0000	1.19134
858.0000	1.37389
857.0000	1.7449
856.0000	1.43009
855.0000	1.45859
854.0000	1.0513
853.0000	0.784702
852.0000	0.610986
851.0000	0.517764
850.0000	0.00569588
849.0000	0.00571956
848.0000	0.00646367
847.0000	0.00656282
846.0000	0.00668039
845.0000	0.00742678
844.0000	0.00728165
843.0000	0.00735724
842.0000	0.00799876
841.0000	0.00820899
840.0000	0.00838972
839.0000	0.00863659
838.0000	0.0091737
837.0000	0.00957068
836.0000	0.0100264
835.0000	0.0101722
834.0000	0.0103877
833.0000	0.0106781
832.0000	0.0110739
831.0000	0.0112812
830.0000	0.0115366
829.0000	0.01179
828.0000	0.0121448
827.0000	0.0125341
826.0000	0.0126782
825.0000	0.0128222
824.0000	0.0131443
823.0000	0.0133604
822.0000	0.0133953
821.0000	0.0135072
820.0000	0.0135094
819.0000	0.0136931
818.0000	0.0136531
817.0000	0.0135517
816.0000	0.0136968
815.0000	0.0137333
814.0000	0.0136661
813.0000	0.013562
812.0000	0.0134901
811.0000	0.0136333
810.0000	0.0136696
809.0000	0.0136724
808.0000	0.0137798
807.0000	0.0139222
806.0000	0.0137474
805.0000	0.0136426
804.0000	0.0134943
803.0000	0.0134606
802.0000	0.0134944
801.0000	0.0133521
800.0000	0.0133201
799.0000	0.0135669
798.0000	0.0136001
797.0000	0.0135369
796.0000	0.013392
795.0000	0.013321
794.0000	0.0133944
793.0000	0.0133931
792.0000	0.0133255
791.0000	0.0135392
790.0000	0.0136779
789.0000	0.0138292
788.0000	0.0136792
787.0000	0.0136137
786.0000	0.0136503
785.0000	0.0136121
784.0000	0.0134725
783.0000	0.0135052
782.0000	0.0135848
781.0000	0.0136852
780.0000	0.0136164
779.0000	0.0135528
778.0000	0.0136192
777.0000	0.0135476
776.0000	0.0136557
775.0000	0.0135851
774.0000	0.0136558
773.0000	0.013624
772.0000	0.0136602
771.0000	0.0136309
770.0000	0.0134477
769.0000	0.0134125
768.0000	0.0134903
767.0000	0.0135909
766.0000	0.013598
765.0000	0.0136697
764.0000	0.0136356
763.0000	0.0138167
762.0000	0.0138111
761.0000	0.0137125
760.0000	0.0137812
759.0000	0.0136383
758.0000	0.0138224
757.0000	0.0137488
756.0000	0.0137927
755.0000	0.0138542
754.0000	0.0137174
753.0000	0.0138938
752.0000	0.0138933
751.0000	0.0140795
750.0000	0.0139977
749.0000	0.013972
748.0000	0.0141851
747.0000	0.01411
746.0000	0.0141192
745.0000	0.0140078
744.0000	0.0139393
743.0000	0.0140878
742.0000	0.0140444
741.0000	0.0139844
740.0000	0.0142245
739.0000	0.0143082
738.0000	0.0143359
737.0000	0.0141994
736.0000	0.0142373
735.0000	0.0141301
734.0000	0.0141697
733.0000	0.0140956
732.0000	0.0140283
731.0000	0.0140628
730.0000	0.0141339
729.0000	0.0141732
728.0000	0.0142851
727.0000	0.0143555
726.0000	0.0144322
725.0000	0.014433
724.0000	0.0145029
723.0000	0.0146148
722.0000	0.0146835
721.0000	0.0145801
720.0000	0.0147257
719.0000	0.0146521
718.0000	0.0146213
717.0000	0.0146184
716.0000	0.014627
715.0000	0.0147302
714.0000	0.0146598
713.0000	0.0147694
712.0000	0.0148013
711.0000	0.014805
710.0000	0.0148025
709.0000	0.0146946
708.0000	0.0147335
707.0000	0.0146591
706.0000	0.0146624
705.0000	0.0145895
704.0000	0.0146627
703.0000	0.0146242
702.0000	0.0146281
701.0000	0.0146258
700.0000	0.0145943
699.0000	0.0148151
698.0000	0.0148857
697.0000	0.0151066
696.0000	0.0153605
695.0000	0.0155467
694.0000	0.0158817
693.0000	0.0162427
692.0000	0.0164684
691.0000	0.0167637
690.0000	0.0170917
689.0000	0.0174919
688.0000	0.0178948
687.0000	0.0181483
686.0000	0.0184033
685.0000	0.0186566
684.0000	0.0187973
683.0000	0.0187196
682.0000	0.0186083
681.0000	0.0184596
680.0000	0.0183115
679.0000	0.0179834
678.0000	0.0177301
677.0000	0.0175872
676.0000	0.0174164
675.0000	0.017237
674.0000	0.0171358
673.0000	0.017106
672.0000	0.0170733
671.0000	0.0170056
670.0000	0.0170392
669.0000	0.0171925
668.0000	0.0172978
667.0000	0.0173718
666.0000	0.01745
665.0000	0.0175223
664.0000	0.0176674
663.0000	0.0177788
662.0000	0.0176003
661.0000	0.0176778
660.0000	0.017822
659.0000	0.0178207
658.0000	0.0178288
657.0000	0.0178328
656.0000	0.0178692
655.0000	0.0179096
654.0000	0.0179122
653.0000	0.017922
652.0000	0.0179893
651.0000	0.0179939
650.0000	0.0180738
649.0000	0.0181841
648.0000	0.0182967
647.0000	0.0184084
646.0000	0.0185187
645.0000	0.0184912
644.0000	0.0185982
643.0000	0.0186406
642.0000	0.0187562
641.0000	0.0188595
640.0000	0.0189029
639.0000	0.0189862
638.0000	0.0191245
637.0000	0.0191705
636.0000	0.019315
635.0000	0.0192865
634.0000	0.0194729
633.0000	0.0196133
632.0000	0.019657
631.0000	0.0197334
630.0000	0.0197366
629.0000	0.019854
628.0000	0.0199254
627.0000	0.0200423
626.0000	0.0201125
625.0000	0.0202654
624.0000	0.0203739
623.0000	0.0205971
622.0000	0.0205993
621.0000	0.0207099
620.0000	0.0207515
619.0000	0.0208275
618.0000	0.0207941
617.0000	0.0207201
616.0000	0.0207251
615.0000	0.0208057
614.0000	0.0206968
613.0000	0.0207737
612.0000	0.0207446
611.0000	0.0208265
610.0000	0.020827
609.0000	0.0210121
608.0000	0.0212016
607.0000	0.0214223
606.0000	0.0217205
605.0000	0.0219389
604.0000	0.0220544
603.0000	0.0222439
602.0000	0.0221312
601.0000	0.0222181
600.0000	0.0218805
599.0000	0.0219211
598.0000	0.0218812
597.0000	0.0219637
596.0000	0.0220344
595.0000	0.0220769
594.0000	0.0221939
593.0000	0.0223732
592.0000	0.0224193
591.0000	0.0224593
590.0000	0.0224643
589.0000	0.0225825
588.0000	0.0226875
587.0000	0.0226975
586.0000	0.0228059
585.0000	0.0229567
584.0000	0.0230395
583.0000	0.0231483
582.0000	0.0231915
581.0000	0.0233015
580.0000	0.0234199
579.0000	0.023349
578.0000	0.0233928
577.0000	0.0235019
576.0000	0.0235811
575.0000	0.0235892
574.0000	0.0236229
573.0000	0.0237341
572.0000	0.0238108
571.0000	0.0239291
570.0000	0.0238922
569.0000	0.0240518
568.0000	0.0240159
567.0000	0.0241002
566.0000	0.024319
565.0000	0.0243654
564.0000	0.024445
563.0000	0.0246648
562.0000	0.0247497
561.0000	0.0248954
560.0000	0.0250461
559.0000	0.0251249
558.0000	0.0253578
557.0000	0.0255731
556.0000	0.0257323
555.0000	0.025914
554.0000	0.0260324
553.0000	0.0263397
552.0000	0.0264793
551.0000	0.0264551
550.0000	0.0266088
549.0000	0.0266821
548.0000	0.026733
547.0000	0.0267215
546.0000	0.0266941
545.0000	0.0267815
544.0000	0.0268844
543.0000	0.0269007
542.0000	0.0270513
541.0000	0.0271706
540.0000	0.0274381
539.0000	0.0275839
538.0000	0.0277841
537.0000	0.0278553
536.0000	0.028013
535.0000	0.0281286
534.0000	0.0281372
533.0000	0.028366
532.0000	0.0285937
531.0000	0.0287457
530.0000	0.0289432
529.0000	0.0292131
528.0000	0.0294292
527.0000	0.0295999
526.0000	0.0297839
525.0000	0.0298255
524.0000	0.0300273
523.0000	0.0300528
522.0000	0.0301476
521.0000	0.0302643
520.0000	0.0300386
519.0000	0.0301934
518.0000	0.0303457
517.0000	0.0306137
516.0000	0.0307674
515.0000	0.0309653
514.0000	0.0311931
513.0000	0.0312787
512.0000	0.0314009
511.0000	0.0315586
510.0000	0.0316702
509.0000	0.0318875
508.0000	0.0320603
507.0000	0.032261
506.0000	0.0323793
505.0000	0.0325848
504.0000	0.0326286
503.0000	0.0328181
502.0000	0.0328657
501.0000	0.0331217
500.0000	0.0332997
499.0000	0.0334362
498.0000	0.0336663
497.0000	0.0339665
496.0000	0.0343074
495.0000	0.0343932
494.0000	0.0345839
493.0000	0.0347796
492.0000	0.0348919
491.0000	0.0350356
490.0000	0.0352972
489.0000	0.0355017
488.0000	0.0358911
487.0000	0.0360127
486.0000	0.0361535
485.0000	0.0362793
484.0000	0.0364094
483.0000	0.0365452
482.0000	0.0365583
481.0000	0.0368138
480.0000	0.0371969
479.0000	0.0376044
478.0000	0.0379834
477.0000	0.0381595
476.0000	0.0383983
475.0000	0.0386031
474.0000	0.038709
473.0000	0.0387129
472.0000	0.0388578
471.0000	0.0390335
470.0000	0.0391673
469.0000	0.0394198
468.0000	0.0397368
467.0000	0.0402038
466.0000	0.0405928
465.0000	0.041005
464.0000	0.0414149
463.0000	0.0417758
462.0000	0.0421949
461.0000	0.0423995
460.0000	0.0425457
459.0000	0.0428472
458.0000	0.0430147
457.0000	0.0432507
456.0000	0.0434119
455.0000	0.04357
454.0000	0.0438923
453.0000	0.0440785
452.0000	0.0444905
451.0000	0.044711
450.0000	0.0449203
449.0000	0.0449985
448.0000	0.0454153
447.0000	0.0455123
446.0000	0.0456648
445.0000	0.0457287
444.0000	0.0458724
443.0000	0.0462752
442.0000	0.0464401
441.0000	0.0464924
440.0000	0.0467734
439.0000	0.0469933
438.0000	0.0471597
437.0000	0.0473066
436.0000	0.0475054
435.0000	0.0478341
434.0000	0.0480204
433.0000	0.0483069
432.0000	0.0485633
431.0000	0.0488947
430.0000	0.0492604
429.0000	0.0497841
428.0000	0.0500805
427.0000	0.0505986
426.0000	0.0508887
425.0000	0.0514328
424.0000	0.0517825
423.0000	0.0518754
422.0000	0.051919
421.0000	0.0522345
420.0000	0.0488515
419.0000	0.048553
418.0000	0.0485171
417.0000	0.0490241
416.0000	0.0495834
415.0000	0.05038
414.0000	0.0511172
413.0000	0.0521216
412.0000	0.0534025
411.0000	0.0541773
410.0000	0.0548839
409.0000	0.0554866
408.0000	0.055702
407.0000	0.0558305
406.0000	0.0555641
405.0000	0.0552228
404.0000	0.055055
403.0000	0.0548262
402.0000	0.055048
401.0000	0.0553688
400.0000	0.0554831
399.0000	0.0564377
398.0000	0.0571732
397.0000	0.0581963
396.0000	0.0587085
395.0000	0.0595239
394.0000	0.0601759
393.0000	0.0608361
392.0000	0.0613778
391.0000	0.0613836
390.0000	0.0614671
389.0000	0.06199
388.0000	0.0621556
387.0000	0.0623678
386.0000	0.0626638
385.0000	0.0628393
384.0000	0.063385
383.0000	0.0633942
382.0000	0.0634438
381.0000	0.0636247
380.0000	0.0637624
379.0000	0.0640972
378.0000	0.0646176
377.0000	0.0652825
376.0000	0.0661348
375.0000	0.0669624
374.0000	0.067662
373.0000	0.0684319
372.0000	0.0689797
371.0000	0.0694012
370.0000	0.0558347
369.0000	0.0585577
368.0000	0.060713
367.0000	0.0615989
366.0000	0.0627505
365.0000	0.06476
364.0000	0.0652099
363.0000	0.0658623
362.0000	0.0664689
361.0000	0.0667223
360.0000	0.066405
359.0000	0.0666325
358.0000	0.0667085
357.0000	0.0663896
356.0000	0.0668125
355.0000	0.0678456
354.0000	0.0682957
353.0000	0.0683006
352.0000	0.0683835
351.0000	0.0679977
350.0000	0.0689053
349.0000	0.0688452
348.0000	0.068417
347.0000	0.0688116
346.0000	0.0682876
345.0000	0.0684306
344.0000	0.0662979
343.0000	0.0650946
342.0000	0.0633444
341.0000	0.062333
340.0000	0.0525246
339.0000	0.0507135
338.0000	0.0496977
337.0000	0.0484707
336.0000	0.0466996
335.0000	0.0444198
334.0000	0.0436637
333.0000	0.0412604
332.0000	0.0389901
331.0000	0.0381552
330.0000	0.0372426
329.0000	0.0380032
328.0000	0.0332645
327.0000	0.0296634
326.0000	0.0306891
325.0000	0.0280736
324.0000	0.0273013
323.0000	0.0231577
322.0000	0.0262489
321.0000	0.0292705
320.0000	0.0287711
319.0000	0.0276136
318.0000	0.02374
317.0000	0.0211357
316.0000	0.0232249
315.0000	0.0217839
314.0000	0.0148266
313.0000	0.0129856
312.0000	0.0133654
311.0000	0.00482635
310.0000	-0.0112262
309.0000	-0.0172966
308.0000	-0.0209614
307.0000	-0.0348747
306.0000	-0.0790047
305.0000	-0.142971
304.0000	-0.173474
303.0000	-0.251281
302.0000	-0.381032
301.0000	-0.509212
300.0000	-0.61761

##### Extended Information
[Comment]
Sample Name
Comment
User
Division
Company	TTU

[Data Information]
Creation Date	9/13/2024 10:28 AM
Data array type	Linear data array
Horizontal	Wavelength [nm]
Vertical	%T
Start	1500 nm
End	300 nm
Data pitch	1 nm
Data points	1201    

[Measurement Information]
Instrument Name	Jasco-V670
Model Name	V-670
Serial No.	A012261154

Accessory	ISN-723
Accessory S/N	B004561118
  Beam Trap	Use

Photometric Mode	%T
Measurement range	1500 - 300 nm
Data pitch	1 nm
Band width(UV/Vis)	5.0 nm
Band width(NIR)	20.0 nm
Response	Medium
Scanning speed	400 nm/min
Source Change	340 nm
Grating Change	850 nm
Light Source	D2/WI
Filter Exchange	Step
Correction	Baseline

